#EXPORTTYPE:                 ;DATA COMPARE                                           ;DATA COMPARE                                                  ;DATA COMPARE                                            
#FILE:                       ;11.05.23_ Dy_1.5+3_3kmin_30+500_N2-120.ngb-ds5         ;10.05.23_ Dy_1.5+3_10kmin_30+500_N2-120.ngb-ds5               ;04.05.23_Dy_1,5+3_5kmin_30+1000_N2-120.ngb-ds5          
#FORMAT:                     ;NETZSCH5                                               ;NETZSCH5                                                      ;NETZSCH5                                                
#FTYPE:                      ;ANSI                                                   ;ANSI                                                          ;ANSI                                                    
#IDENTITY:                   ;Dy_1,5+3                                               ;Dy 1.5+3                                                      ;Dy_1,5+3                                                
#DECIMAL:                    ;COMMA                                                  ;COMMA                                                         ;COMMA                                                   
#SEPARATOR:                  ;SEMICOLON                                              ;SEMICOLON                                                     ;SEMICOLON                                               
#MTYPE:                      ;DSC                                                    ;DSC                                                           ;DSC                                                     
#INSTRUMENT:                 ;NETZSCH STA 449F5                                      ;NETZSCH STA 449F5                                             ;NETZSCH STA 449F5                                       
#PROJECT:                    ;                                                       ;                                                              ;                                                        
#DATE/TIME:                  ;11.05.2023 15:56:06 (UTC+3)                            ;10.05.2023 16:39:14 (UTC+3)                                   ;04.05.2023 11:29:49 (UTC+3)                             
#CORR. FILE:                 ;11.05.23_correction for composite-3kmin_30-500Ñ.ngb-bs5;29.04.22_correction for composite-10kmin_30+500_N2-120.ngb-bs5;18.04.23_correction for composite-5kmin_30-1000Ñ.ngb-bs5
#TEMPCAL:                    ;3kmin-N2_washer+Al2O3+cover.ngb-ts5                    ;10kmin-N2_washer+Al2O3+cover.ngb-ts5                          ;5kmin-N2_washer+Al2O3+cover.ngb-ts5                     
#SENSITIVITY:                ;3kmin-N2_washer+Al2O3+cover.ngb-es5                    ;10kmin-N2_washer+Al2O3+cover.ngb-ts5.ngb-es5                  ;5kmin-N2_washer+Al2O3+cover.ngb-es5                     
#LABORATORY:                 ;                                                       ;                                                              ;                                                        
#OPERATOR:                   ;                                                       ;                                                              ;                                                        
#REMARK:                     ;                                                       ;                                                              ;                                                        
#SAMPLE:                     ;1                                                      ;1                                                             ;1                                                       
#SAMPLE MASS /mg:            ;29,0031                                                ;23,9261                                                       ;25,0075                                                 
#MATERIAL:                   ;                                                       ;                                                              ;                                                        
#REFERENCE:                  ;                                                       ;                                                              ;                                                        
#REFERENCE MASS /mg:         ;0                                                      ;0                                                             ;0                                                       
#TYPE OF CRUCIBLE:           ;DSC/TG pan Al2O3                                       ;DSC/TG pan Al2O3                                              ;DSC/TG pan Al2O3                                        
#SAMPLE CRUCIBLE MASS /mg:   ;0                                                      ;0                                                             ;0                                                       
#REFERENCE CRUCIBLE MASS /mg:;0                                                      ;0                                                             ;0                                                       
#DSC RANGE /µV:              ;5000                                                   ;5000                                                          ;5000                                                    
#TG RANGE /mg:               ;35000                                                  ;35000                                                         ;35000                                                   
#TAU-R:                      ;---                                                    ;---                                                           ;---                                                     
#CORR. CODE:                 ;020                                                    ;020                                                           ;020                                                     
#EXO:                        ;+1                                                     ;+1                                                            ;+1                                                      
#RANGE:                      ;30°C/3,0(K/min)/500°C                                  ;30°C/10,0(K/min)/500°C                                        ;30°C/5,0(K/min)/1000°C                                  
#SEGMENT:                    ;S1/1                                                   ;S1/1                                                          ;S1/1                                                    
#SEG. 1:                     ;30°C/3,0(K/min)/500°C                                  ;30°C/10,0(K/min)/500°C                                        ;30°C/5,0(K/min)/1000°C                                  

##Temp./°C;DSC/(mW/mg);DSC/(mW/mg);DSC/(mW/mg)
 30,67700; 1,864563e-003;-1,119266e-003; 1,937029e-003
 31,63192;-3,789574e-003;-9,361462e-003;-3,970350e-002
 32,58683;-7,888480e-003;-1,773741e-002; 6,099374e-003
 33,54175;-1,113759e-002;-2,492052e-002; 6,820957e-003
 34,49666;-1,402875e-002;-3,172290e-002; 7,383005e-003
 35,45158;-1,613652e-002;-3,780235e-002; 8,013974e-003
 36,40649;-1,829794e-002;-4,272503e-002; 8,043397e-003
 37,36141;-1,993019e-002;-4,790548e-002; 8,469129e-003
 38,31632;-2,158710e-002;-5,253155e-002; 8,687588e-003
 39,27124;-2,305707e-002;-5,695738e-002; 9,056729e-003
 40,22615;-2,455767e-002;-6,094891e-002; 9,235242e-003
 41,18107;-2,569229e-002;-6,452442e-002; 9,513704e-003
 42,13598;-2,665800e-002;-6,829838e-002; 9,874575e-003
 43,09090;-2,721745e-002;-7,126918e-002; 1,001462e-002
 44,04581;-2,811054e-002;-7,412889e-002; 1,029362e-002
 45,00073;-2,871562e-002;-7,721817e-002; 1,068566e-002
 45,95564;-2,913597e-002;-8,039340e-002; 1,117864e-002
 46,91056;-2,944568e-002;-8,253423e-002; 1,138034e-002
 47,86547;-2,959240e-002;-8,502477e-002; 1,180475e-002
 48,82039;-3,007542e-002;-8,726996e-002; 1,227732e-002
 49,77530;-3,036589e-002;-8,923464e-002; 1,264445e-002
 50,73022;-3,045230e-002;-9,096671e-002; 1,323465e-002
 51,68513;-3,016008e-002;-9,283793e-002; 1,375542e-002
 52,64005;-3,034498e-002;-9,420346e-002; 1,411479e-002
 53,59496;-2,995719e-002;-9,607276e-002; 1,480127e-002
 54,54988;-2,981579e-002;-9,721893e-002; 1,535531e-002
 55,50479;-2,957686e-002;-9,860495e-002; 1,591822e-002
 56,45971;-2,932720e-002;-9,994568e-002; 1,668203e-002
 57,41462;-2,898242e-002;      -0,10080; 1,759738e-002
 58,36954;-2,897017e-002;      -0,10183; 1,805905e-002
 59,32445;-2,840418e-002;      -0,10263; 1,885637e-002
 60,27937;-2,768056e-002;      -0,10332; 1,955074e-002
 61,23428;-2,737098e-002;      -0,10405; 2,052659e-002
 62,18920;-2,583231e-002;      -0,10458; 2,081778e-002
 63,14411;-2,632107e-002;      -0,10533; 2,200393e-002
 64,09903;-2,561957e-002;      -0,10608; 2,249642e-002
 65,05394;-2,510018e-002;      -0,10584; 2,315556e-002
 66,00886;-2,444414e-002;      -0,10587; 2,407090e-002
 66,96377;-2,401506e-002;      -0,10634; 2,532195e-002
 67,91869;-2,282927e-002;      -0,10618; 2,572100e-002
 68,87360;-2,235973e-002;      -0,10636; 2,678295e-002
 69,82852;-2,149767e-002;      -0,10623; 2,764516e-002
 70,78343;-2,083159e-002;      -0,10608; 2,878984e-002
 71,73835;-1,997395e-002;      -0,10576; 3,005571e-002
 72,69326;-1,920616e-002;      -0,10572; 3,079125e-002
 73,64818;-1,868982e-002;      -0,10536; 3,177142e-002
 74,60309;-1,767258e-002;      -0,10483; 3,267735e-002
 75,55801;-1,673328e-002;      -0,10455; 3,395061e-002
 76,51292;-1,595736e-002;      -0,10355; 3,480161e-002
 77,46784;-1,522255e-002;      -0,10307; 3,635769e-002
 78,42275;-1,394030e-002;      -0,10223; 3,715757e-002
 79,37767;-1,327161e-002;      -0,10159; 3,817200e-002
 80,33258;-1,238919e-002;      -0,10052; 3,942629e-002
 81,28750;-1,128088e-002;      -0,10020; 4,034292e-002
 82,24241;-1,013623e-002;-9,929843e-002; 4,175834e-002
 83,19733;-9,080361e-003;-9,810619e-002; 4,293437e-002
 84,15224;-8,363864e-003;-9,704450e-002; 4,426488e-002
 85,10716;-7,312527e-003;-9,606414e-002; 4,521625e-002
 86,06207;-6,189705e-003;-9,530858e-002; 4,622143e-002
 87,01699;-5,209460e-003;-9,387043e-002; 4,745213e-002
 87,97190;-4,296394e-003;-9,277124e-002; 4,867375e-002
 88,92682;-3,274179e-003;-9,159663e-002; 5,020671e-002
 89,88173;-2,259040e-003;-9,043075e-002; 5,081711e-002
 90,83665;-1,263329e-003;-8,871340e-002; 5,224948e-002
 91,79156;-2,196644e-004;-8,763962e-002; 5,351227e-002
 92,74648; 8,939690e-004;-8,610909e-002; 5,484503e-002
 93,70139; 2,064811e-003;-8,509733e-002; 5,588818e-002
 94,65631; 3,023989e-003;-8,269481e-002; 5,700629e-002
 95,61122; 4,055140e-003;-8,109418e-002; 5,782491e-002
 96,56614; 5,311745e-003;-7,974523e-002; 5,907429e-002
 97,52105; 6,444821e-003;-7,819400e-002; 6,064774e-002
 98,47597; 7,630562e-003;-7,657218e-002; 6,178764e-002
 99,43088; 8,734382e-003;-7,437199e-002; 6,317272e-002
100,38580; 9,878397e-003;-7,305655e-002; 6,447859e-002
101,34071; 1,152070e-002;-7,114625e-002; 6,525287e-002
102,29563; 1,219498e-002;-6,908353e-002; 6,638717e-002
103,25054; 1,306661e-002;-6,694685e-002; 6,761376e-002
104,20546; 1,453018e-002;-6,504361e-002; 6,879999e-002
105,16037; 1,575689e-002;-6,278774e-002; 7,019310e-002
106,11529; 1,712058e-002;-6,097140e-002; 7,142077e-002
107,07020; 1,809582e-002;-5,927009e-002; 7,244478e-002
108,02512; 1,934108e-002;-5,655593e-002; 7,398267e-002
108,98003; 2,075467e-002;-5,437354e-002; 7,502614e-002
109,93495; 2,167942e-002;-5,256077e-002; 7,645656e-002
110,88986; 2,286062e-002;-4,988773e-002; 7,817622e-002
111,84478; 2,413609e-002;-4,807240e-002; 7,941441e-002
112,79969; 2,549037e-002;-4,555450e-002; 8,016758e-002
113,75461; 2,640951e-002;-4,329372e-002; 8,185252e-002
114,70952; 2,762707e-002;-4,072172e-002; 8,311848e-002
115,66444; 2,886695e-002;-3,865162e-002; 8,415248e-002
116,61935; 2,995510e-002;-3,637515e-002; 8,582613e-002
117,57427; 3,177012e-002;-3,369645e-002; 8,713979e-002
118,52918; 3,241218e-002;-3,137581e-002; 8,814455e-002
119,48410; 3,389630e-002;-2,866485e-002; 8,963654e-002
120,43901; 3,483706e-002;-2,659485e-002; 9,099942e-002
121,39393; 3,623782e-002;-2,427180e-002; 9,249035e-002
122,34884; 3,768302e-002;-2,117896e-002; 9,388369e-002
123,30376; 3,846247e-002;-1,866454e-002; 9,511277e-002
124,25867; 3,983094e-002;-1,629417e-002; 9,674418e-002
125,21359; 4,102764e-002;-1,360979e-002; 9,744336e-002
126,16850; 4,230895e-002;-1,101473e-002; 9,865564e-002
127,12342; 4,335536e-002;-8,777377e-003;       0,10068
128,07833; 4,414813e-002;-6,094926e-003;       0,10155
129,03325; 4,564676e-002;-3,209521e-003;       0,10276
129,98816; 4,656175e-002;-8,952851e-004;       0,10446
130,94308; 4,790785e-002; 1,758318e-003;       0,10557
131,89799; 4,886792e-002; 4,514672e-003;       0,10658
132,85291; 5,020205e-002; 6,988815e-003;       0,10791
133,80782; 5,174107e-002; 9,897809e-003;       0,10905
134,76274; 5,271369e-002; 1,219846e-002;       0,11038
135,71765; 5,388161e-002; 1,505474e-002;       0,11113
136,67257; 5,528384e-002; 1,785250e-002;       0,11226
137,62748; 5,691941e-002; 2,007053e-002;       0,11330
138,58240; 5,836635e-002; 2,259928e-002;       0,11423
139,53731; 5,995217e-002; 2,518339e-002;       0,11541
140,49223; 6,138203e-002; 2,740063e-002;       0,11665
141,44714; 6,272080e-002; 3,023891e-002;       0,11792
142,40206; 6,471614e-002; 3,283273e-002;       0,11872
143,35697; 6,616196e-002; 3,451160e-002;       0,12007
144,31189; 6,792823e-002; 3,641721e-002;       0,12163
145,26680; 6,940899e-002; 3,909509e-002;       0,12289
146,22172; 7,136880e-002; 4,071319e-002;       0,12476
147,17663; 7,193634e-002; 4,329631e-002;       0,12565
148,13155; 7,361672e-002; 4,593645e-002;       0,12821
149,08646; 7,510575e-002; 4,776667e-002;       0,12966
150,04138; 7,639722e-002; 5,028147e-002;       0,13118
150,99629; 7,748106e-002; 5,187230e-002;       0,13281
151,95121; 7,857633e-002; 5,490997e-002;       0,13478
152,90612; 7,964549e-002; 5,674190e-002;       0,13671
153,86104; 8,093965e-002; 5,986879e-002;       0,13871
154,81595; 7,762061e-002; 6,203401e-002;       0,13996
155,77087; 8,237819e-002; 6,469350e-002;       0,14134
156,72578; 8,377592e-002; 6,776702e-002;       0,14253
157,68070; 8,499898e-002; 7,085085e-002;       0,14397
158,63561; 8,635540e-002; 7,394204e-002;       0,14508
159,59053; 8,716737e-002; 7,722996e-002;       0,14613
160,54544; 8,811119e-002; 8,064723e-002;       0,14730
161,50036; 8,956592e-002; 8,455190e-002;       0,14835
162,45527; 9,027210e-002; 8,736896e-002;       0,14934
163,41019; 9,134012e-002; 9,065763e-002;       0,15063
164,36510; 9,196665e-002; 9,327159e-002;       0,15199
165,32002; 9,290490e-002; 9,640866e-002;       0,15257
166,27493; 9,311718e-002; 9,930659e-002;       0,15315
167,22985; 9,384377e-002;       0,10184;       0,15389
168,18476; 9,441621e-002;       0,10444;       0,15459
169,13968; 9,455051e-002;       0,10726;       0,15558
170,09459; 9,473679e-002;       0,10968;       0,15628
171,04951; 9,447111e-002;       0,11168;       0,15639
172,00442; 9,435814e-002;       0,11367;       0,15705
172,95934; 9,376435e-002;       0,11587;       0,15728
173,91425; 9,308269e-002;       0,11747;       0,15758
174,86917; 9,258953e-002;       0,11930;       0,15738
175,82408; 9,167808e-002;       0,12090;       0,15711
176,77900; 9,041388e-002;       0,12280;       0,15670
177,73391; 8,940999e-002;       0,12434;       0,15650
178,68883; 8,755810e-002;       0,12610;       0,15490
179,64374; 8,567187e-002;       0,12760;       0,15386
180,59866; 8,324180e-002;       0,12938;       0,15285
181,55357; 8,022171e-002;       0,13044;       0,15113
182,50849; 7,752428e-002;       0,13163;       0,14921
183,46340; 7,415624e-002;       0,13242;       0,14649
184,41832; 7,086368e-002;       0,13256;       0,14364
185,37323; 6,617616e-002;       0,13241;       0,14038
186,32815; 5,546801e-002;       0,12535;       0,13029
187,28306;-4,624814e-003;       0,10481; 7,871496e-002
188,23798;      -0,11677; 3,317360e-002;-3,766390e-002
189,19289;      -0,24278;-9,245648e-002;      -0,15123
190,14781;      -0,32287;      -0,23228;      -0,25522
191,10272;      -0,34687;      -0,36306;      -0,31900
192,05764;      -0,30755;      -0,45496;      -0,33995
193,01255;      -0,21348;      -0,51510;      -0,31481
193,96747;      -0,11263;      -0,54495;      -0,25729
194,92238;-4,933134e-002;      -0,55219;      -0,17529
195,87730;-1,165841e-002;      -0,53743;-9,712238e-002
196,83221; 8,031454e-003;      -0,49900;-3,715162e-002
197,78713; 1,792270e-002;      -0,43955; 3,527633e-003
198,74204; 2,097016e-002;      -0,36687; 2,888393e-002
199,69696; 2,019607e-002;      -0,29677; 4,712031e-002
200,65187; 1,579732e-002;      -0,23613; 5,735616e-002
201,60679; 1,010614e-002;      -0,18462; 6,144019e-002
202,56170; 2,667462e-003;      -0,14250; 6,113971e-002
203,51662;-4,376502e-003;      -0,10694; 5,584658e-002
204,47153;-1,303418e-002;-7,879295e-002; 5,113574e-002
205,42645;-2,159416e-002;-5,509240e-002; 4,494842e-002
206,38136;-3,093788e-002;-3,785063e-002; 3,666443e-002
207,33628;-4,069321e-002;-2,450732e-002; 2,745586e-002
208,29119;-5,082344e-002;-1,533307e-002; 1,762025e-002
209,24611;-6,075910e-002;-9,463972e-003; 6,535729e-003
210,20102;-7,053644e-002;-7,937482e-003;-5,099539e-003
211,15594;-8,130309e-002;-8,496182e-003;-1,723928e-002
212,11085;-9,186618e-002;-1,158727e-002;-2,915906e-002
213,06577;      -0,10213;-1,746031e-002;-4,202613e-002
214,02068;      -0,11357;-2,605075e-002;-5,510047e-002
214,97560;      -0,12484;-3,563359e-002;-6,846503e-002
215,93051;      -0,13537;-4,770150e-002;-8,209799e-002
216,88543;      -0,14673;-6,125207e-002;-9,564961e-002
217,84034;      -0,15739;-7,628297e-002;      -0,10978
218,79526;      -0,16823;-9,318691e-002;      -0,12355
219,75017;      -0,17882;      -0,11065;      -0,13768
220,70509;      -0,18866;      -0,12947;      -0,15146
221,66000;      -0,19861;      -0,14887;      -0,16579
222,61492;      -0,20808;      -0,17031;      -0,17966
223,56983;      -0,21646;      -0,19234;      -0,19289
224,52475;      -0,22467;      -0,21480;      -0,20636
225,47966;      -0,23192;      -0,23841;      -0,21935
226,43458;      -0,23833;      -0,26211;      -0,23318
227,38949;      -0,24326;      -0,28679;      -0,24519
228,34441;      -0,24767;      -0,31178;      -0,25640
229,29932;      -0,25046;      -0,33660;      -0,26817
230,25424;      -0,25200;      -0,36207;      -0,27871
231,20915;      -0,25273;      -0,38847;      -0,28930
232,16407;      -0,25237;      -0,41434;      -0,29722
233,11898;      -0,25269;      -0,44091;      -0,30490
234,07390;      -0,25516;      -0,46764;      -0,31195
235,02881;      -0,25752;      -0,49382;      -0,31717
235,98373;      -0,25895;      -0,52033;      -0,32133
236,93864;      -0,25875;      -0,54655;      -0,32424
237,89356;      -0,25652;      -0,57257;      -0,32533
238,84847;      -0,25366;      -0,59804;      -0,32492
239,80339;      -0,24992;      -0,62400;      -0,32808
240,75830;      -0,24600;      -0,64838;      -0,33868
241,71322;      -0,24259;      -0,67250;      -0,35100
242,66813;      -0,24007;      -0,69541;      -0,36469
243,62305;      -0,23817;      -0,71787;      -0,37798
244,57796;      -0,23717;      -0,73907;      -0,38932
245,53288;      -0,23689;      -0,75925;      -0,39783
246,48779;      -0,23781;      -0,77826;      -0,40514
247,44271;      -0,24010;      -0,79604;      -0,41077
248,39762;      -0,24448;      -0,81193;      -0,41507
249,35254;      -0,25040;      -0,82588;      -0,41947
250,30745;      -0,25659;      -0,83795;      -0,42384
251,26237;      -0,26425;      -0,84843;      -0,42961
252,21728;      -0,27279;      -0,85664;      -0,43593
253,17220;      -0,28241;      -0,86336;      -0,44409
254,12711;      -0,29213;      -0,86765;      -0,45199
255,08203;      -0,30262;      -0,87377;      -0,46164
256,03694;      -0,31251;      -0,88365;      -0,47348
256,99186;      -0,32314;      -0,89486;      -0,48611
257,94677;      -0,33360;      -0,90585;      -0,49801
258,90169;      -0,34348;      -0,91552;      -0,50945
259,85660;      -0,35210;      -0,92282;      -0,52052
260,81152;      -0,36010;      -0,92819;      -0,52989
261,76643;      -0,36522;      -0,93133;      -0,53827
262,72135;      -0,36840;      -0,93240;      -0,54583
263,67626;      -0,36836;      -0,93202;      -0,55221
264,63118;      -0,36473;      -0,93050;      -0,55683
265,58609;      -0,35933;      -0,92928;      -0,55873
266,54101;      -0,35153;      -0,92862;      -0,55632
267,49592;      -0,33944;      -0,92877;      -0,55025
268,45084;      -0,31910;      -0,92985;      -0,54241
269,40575;      -0,28023;      -0,93274;      -0,53230
270,36067;      -0,21488;      -0,93829;      -0,52162
271,31558;      -0,11228;      -0,94527;      -0,51011
272,27050; 6,232736e-003;      -0,95480;      -0,49663
273,22541;       0,11035;      -0,96694;      -0,48088
274,18033;       0,16121;      -0,98069;      -0,46240
275,13524;       0,18016;      -0,99484;      -0,44134
276,09016;       0,18670;      -1,00992;      -0,41474
277,04507;       0,18692;      -1,02497;      -0,37836
277,99999;       0,18401;      -1,04107;      -0,32616
278,95490;       0,17886;      -1,05585;      -0,24788
279,90982;       0,17304;      -1,06988;      -0,14052
280,86473;       0,16648;      -1,08271;-3,273490e-002
281,81965;       0,15966;      -1,09473; 7,398726e-002
282,77456;       0,15260;      -1,10608;       0,16850
283,72948;       0,14533;      -1,11530;       0,21918
284,68439;       0,13839;      -1,12122;       0,24063
285,63931;       0,13072;      -1,12327;       0,25024
286,59422;       0,12325;      -1,12252;       0,25162
287,54914;       0,11486;      -1,12075;       0,24863
288,50405;       0,10668;      -1,11772;       0,24223
289,45897; 9,834752e-002;      -1,11138;       0,23467
290,41388; 8,969883e-002;      -1,10412;       0,22596
291,36880; 8,069670e-002;      -1,09457;       0,21599
292,32371; 7,192366e-002;      -1,08171;       0,20518
293,27863; 6,241543e-002;      -1,06587;       0,19419
294,23354; 5,275046e-002;      -1,04770;       0,18346
295,18846; 4,328665e-002;      -1,02392;       0,17194
296,14337; 3,392932e-002;      -0,99678;       0,16041
297,09829; 2,440955e-002;      -0,96263;       0,14884
298,05320; 1,463687e-002;      -0,92062;       0,13783
299,00812; 5,177764e-003;      -0,87115;       0,12588
299,96303;-5,291856e-003;      -0,81017;       0,11399
300,91795;-1,563482e-002;      -0,73900;       0,10228
301,87286;-2,592652e-002;      -0,66171; 9,026113e-002
302,82778;-3,861867e-002;      -0,58124; 8,061976e-002
303,78269;-4,727513e-002;      -0,49723; 7,171776e-002
304,73761;-5,873515e-002;      -0,41487; 6,162223e-002
305,69252;-7,032505e-002;      -0,33341; 5,110360e-002
306,64744;-8,122555e-002;      -0,23694; 3,983059e-002
307,60235;-9,240466e-002;      -0,15449; 2,825340e-002
308,55727;      -0,10385;      -0,10052; 1,593072e-002
309,51218;      -0,11485;-6,676402e-002; 2,415779e-003
310,46710;      -0,12687;-4,782834e-002;-1,099554e-002
311,42201;      -0,13826;-3,708716e-002;-2,392606e-002
312,37693;      -0,14943;-3,425472e-002;-3,681883e-002
313,33184;      -0,16108;-3,723623e-002;-5,052716e-002
314,28676;      -0,17266;-4,362710e-002;-6,429037e-002
315,24167;      -0,18464;-5,484435e-002;-7,783960e-002
316,19659;      -0,19665;-6,876057e-002;-9,194165e-002
317,15150;      -0,20901;-8,544421e-002;      -0,10557
318,10642;      -0,21957;      -0,10425;      -0,11909
319,06133;      -0,23244;      -0,12440;      -0,13343
320,01625;      -0,24541;      -0,14637;      -0,14691
320,97116;      -0,25834;      -0,16958;      -0,16160
321,92608;      -0,27093;      -0,19396;      -0,17477
322,88099;      -0,28286;      -0,21880;      -0,18897
323,83591;      -0,29301;      -0,24462;      -0,20326
324,79082;      -0,30133;      -0,27115;      -0,21714
325,74574;      -0,30791;      -0,29752;      -0,23163
326,70065;      -0,31344;      -0,32458;      -0,24556
327,65557;      -0,31543;      -0,35128;      -0,25938
328,61048;      -0,31568;      -0,37902;      -0,27288
329,56540;      -0,31136;      -0,40655;      -0,28693
330,52031;      -0,30233;      -0,43431;      -0,30155
331,47523;      -0,28535;      -0,46358;      -0,31593
332,43014;      -0,25823;      -0,49184;      -0,33027
333,38506;      -0,21574;      -0,52007;      -0,34282
334,33997;      -0,14250;      -0,54854;      -0,35463
335,29489; 1,658640e-002;      -0,57621;      -0,36413
336,24980;       0,19113;      -0,60406;      -0,37172
337,20472;       0,27508;      -0,63311;      -0,37832
338,15963;       0,31989;      -0,66085;      -0,38304
339,11455;       0,34218;      -0,68933;      -0,38528
340,06946;       0,35326;      -0,71728;      -0,38491
341,02438;       0,35824;      -0,74438;      -0,38091
341,97929;       0,36006;      -0,77154;      -0,37204
342,93421;       0,36039;      -0,79841;      -0,35872
343,88912;       0,35919;      -0,82597;      -0,33816
344,84404;       0,35703;      -0,85254;      -0,30708
345,79895;       0,35437;      -0,87845;      -0,26110
346,75387;       0,35140;      -0,90444;      -0,19226
347,70878;       0,34810;      -0,92916;-7,431386e-002
348,66370;       0,34504;      -0,95226;       0,13643
349,61861;       0,34155;      -0,97467;       0,28283
350,57353;       0,33810;      -0,99558;       0,37576
351,52844;       0,33411;      -1,01482;       0,43557
352,48336;       0,32976;      -1,03177;       0,47385
353,43827;       0,32500;      -1,04707;       0,49790
354,39319;       0,31861;      -1,06068;       0,51282
355,34810;       0,31374;      -1,07085;       0,52071
356,30302;       0,30754;      -1,07885;       0,52355
357,25793;       0,30064;      -1,08343;       0,52349
358,21285;       0,29353;      -1,08523;       0,52217
359,16776;       0,28550;      -1,08393;       0,51893
360,12268;       0,27708;      -1,07882;       0,51532
361,07759;       0,26880;      -1,07049;       0,51148
362,03251;       0,25960;      -1,05791;       0,50725
362,98742;       0,25035;      -1,04140;       0,50313
363,94234;       0,24096;      -1,01880;       0,49860
364,89725;       0,23120;      -0,99120;       0,49357
365,85217;       0,22190;      -0,95691;       0,48807
366,80708;       0,21189;      -0,91521;       0,48204
367,76200;       0,20253;      -0,86434;       0,47597
368,71691;       0,19328;      -0,80090;       0,46887
369,67183;       0,18431;      -0,72258;       0,46156
370,62674;       0,17525;      -0,62458;       0,45379
371,58166;       0,16621;      -0,49884;       0,44574
372,53657;       0,15682;      -0,32380;       0,43761
373,49149;       0,14814;      -0,13510;       0,42878
374,44640;       0,13886; 3,672374e-003;       0,41898
375,40132;       0,13003;       0,10961;       0,40987
376,35623;       0,12024;       0,18939;       0,39955
377,31115;       0,11061;       0,24907;       0,38909
378,26606;       0,10062;       0,29289;       0,37827
379,22098; 9,056081e-002;       0,32545;       0,36680
380,17589; 7,957501e-002;       0,34696;       0,35466
381,13081; 6,911136e-002;       0,36056;       0,34181
382,08572; 5,793534e-002;       0,36771;       0,32979
383,04064; 4,629364e-002;       0,36896;       0,31571
383,99555; 3,471400e-002;       0,36567;       0,30215
384,95047; 2,244408e-002;       0,35809;       0,28869
385,90538; 1,007837e-002;       0,34733;       0,27495
386,86030;-1,674043e-003;       0,33425;       0,26188
387,81521;-1,305390e-002;       0,31875;       0,24908
388,77013;-1,824447e-002;       0,30110;       0,23478
389,72504; 2,228055e-002;       0,28254;       0,22127
390,67996;       0,10798;       0,26189;       0,20788
391,63487;       0,15108;       0,24101;       0,19404
392,58979;       0,17246;       0,21896;       0,17938
393,54470;       0,18365;       0,19571;       0,16490
394,49962;       0,19001;       0,17270;       0,15019
395,45453;       0,19404;       0,14827;       0,13522
396,40945;       0,19634;       0,12286;       0,11997
397,36436;       0,19817; 9,808718e-002;       0,10451
398,31928;       0,19991; 7,284293e-002; 8,750273e-002
399,27419;       0,20102; 4,770981e-002; 7,136110e-002
400,22911;       0,20249; 2,144527e-002; 5,464530e-002
401,18402;       0,20458;-4,290065e-003; 3,748105e-002
402,13894;       0,20584;-3,030754e-002; 1,985738e-002
403,09385;       0,20694;-5,707166e-002; 3,932950e-003
404,04877;       0,20828;-8,302904e-002;-1,072783e-002
405,00368;       0,20974;      -0,11006;-2,043705e-002
405,95860;       0,20839;      -0,13749;-1,365006e-002
406,91351;       0,21243;      -0,16508; 6,662587e-002
407,86843;       0,21414;      -0,19353;       0,15393
408,82334;       0,21552;      -0,22139;       0,20845
409,77826;       0,21699;      -0,25065;       0,24233
410,73317;       0,21856;      -0,27993;       0,26474
411,68809;       0,21981;      -0,30949;       0,27957
412,64300;       0,22056;      -0,33971;       0,28941
413,59792;       0,22230;      -0,36996;       0,29559
414,55283;       0,22374;      -0,39923;       0,30030
415,50775;       0,22513;      -0,42835;       0,30379
416,46266;       0,22635;      -0,45612;       0,30652
417,41758;       0,22812;      -0,48046;       0,30835
418,37249;       0,22951;      -0,50120;       0,30997
419,32741;       0,23088;      -0,51373;       0,31156
420,28232;       0,23234;      -0,51474;       0,31308
421,23724;       0,23347;      -0,48593;       0,31449
422,19215;       0,23509;      -0,38957;       0,31573
423,14707;       0,23617;      -0,28456;       0,31748
424,10198;       0,23757;      -0,20430;       0,31865
425,05690;       0,23896;      -0,14332;       0,31958
426,01181;       0,24043;-9,624550e-002;       0,32217
426,96673;       0,24197;-5,874618e-002;       0,32255
427,92164;       0,24392;-2,909247e-002;       0,32409
428,87656;       0,24462;-5,877818e-003;       0,32526
429,83147;       0,24630; 1,310067e-002;       0,32658
430,78639;       0,24796; 2,785699e-002;       0,32757
431,74130;       0,24926; 4,073611e-002;       0,32907
432,69622;       0,25050; 4,917544e-002;       0,33050
433,65113;       0,25211; 5,747351e-002;       0,33180
434,60605;       0,25317; 6,352627e-002;       0,33317
435,56096;       0,25482; 6,843817e-002;       0,33389
436,51588;       0,25572; 7,294932e-002;       0,33498
437,47079;       0,25729; 7,648330e-002;       0,33636
438,42571;       0,25841; 7,918102e-002;       0,33725
439,38062;       0,25968; 8,130269e-002;       0,33926
440,33554;       0,26085; 8,310634e-002;       0,34015
441,29045;       0,26273; 8,462307e-002;       0,34147
442,24537;       0,26408; 8,535365e-002;       0,34275
443,20028;       0,26507; 8,678928e-002;       0,34421
444,15520;       0,26619; 8,741855e-002;       0,34509
445,11011;       0,26761; 8,831737e-002;       0,34672
446,06503;       0,26900; 8,887391e-002;       0,34772
447,01994;       0,27044; 8,929100e-002;       0,34891
447,97486;       0,27212; 9,024291e-002;       0,34995
448,92977;       0,27349; 9,077644e-002;       0,35125
449,88469;       0,27452; 9,075535e-002;       0,35203
450,83960;       0,27651; 9,144095e-002;       0,35301
451,79452;       0,27737; 9,193861e-002;       0,35493
452,74943;       0,27867; 9,200221e-002;       0,35661
453,70435;       0,28045; 9,277117e-002;       0,35744
454,65926;       0,28161; 9,283422e-002;       0,35950
455,61418;       0,28323; 9,330364e-002;       0,36073
456,56909;       0,28431; 9,334176e-002;       0,36179
457,52401;       0,28553; 9,334816e-002;       0,36340
458,47892;       0,28716; 9,390391e-002;       0,36432
459,43384;       0,28859; 9,411550e-002;       0,36517
460,38875;       0,28960; 9,372772e-002;       0,36643
461,34367;       0,29115; 9,429177e-002;       0,36784
462,29858;       0,29238; 9,425987e-002;       0,36868
463,25350;       0,29418; 9,407810e-002;       0,36931
464,20841;       0,29582; 9,467181e-002;       0,37025
465,16333;       0,29702; 9,491880e-002;       0,37099
466,11824;       0,29868; 9,506493e-002;       0,37217
467,07316;       0,29971; 9,470161e-002;       0,37354
468,02807;       0,30079; 9,533686e-002;       0,37434
468,98299;       0,30182; 9,569368e-002;       0,37570
469,93790;       0,30296; 9,530986e-002;       0,37715
470,89282;       0,30415; 9,549424e-002;       0,37816
471,84773;       0,30536; 9,525676e-002;       0,38000
472,80265;       0,30684; 9,617244e-002;       0,38064
473,75756;       0,30841; 9,651900e-002;       0,38126
474,71248;       0,30954; 9,592886e-002;       0,38261
475,66739;       0,31096; 9,574145e-002;       0,38367
476,62231;       0,31244; 9,590076e-002;       0,38492
477,57722;       0,31350; 9,621130e-002;       0,38554
478,53214;       0,31461; 9,663538e-002;       0,38689
479,48705;       0,31592; 9,658967e-002;       0,38816
480,44197;       0,31739; 9,629070e-002;       0,38951
481,39688;       0,31856; 9,637115e-002;       0,39023
482,35180;       0,31968; 9,651794e-002;       0,39182
483,30671;       0,32099; 9,673062e-002;       0,39301
484,26163;       0,32197; 9,630068e-002;       0,39367
485,21654;       0,32286; 9,657277e-002;       0,39501
486,17146;       0,32463; 9,648900e-002;       0,39579
487,12637;       0,32560; 9,665860e-002;       0,39777
488,08129;       0,32622; 9,648755e-002;       0,39907
489,03620;       0,32717; 9,650303e-002;       0,39998
489,99112;       0,32843; 9,703157e-002;       0,40130
490,94603;       0,32934; 9,668583e-002;       0,40234
491,90095;       0,33070; 9,659865e-002;       0,40349
492,85586;       0,33185; 9,666256e-002;       0,40413
493,81078;       0,33361; 9,645777e-002;       0,40499
494,76569;       0,33454; 9,659702e-002;       0,40581
495,72061;       0,33608; 9,644170e-002;       0,40650
496,67552;       0,33642; 9,625130e-002;       0,40765
497,63044;       0,33806; 9,625130e-002;       0,40798
498,58535;       0,33889; 9,625130e-002;       0,40865
499,54027;       0,33889; 9,625130e-002;       0,41018
500,49518;       0,33889; 9,625130e-002;       0,41104
501,45010;       0,33889;              ;       0,41179
502,40501;       0,33889;              ;       0,41291
503,35993;              ;              ;       0,41408
504,31484;              ;              ;       0,41521
505,26976;              ;              ;       0,41634
506,22467;              ;              ;       0,41746
507,17959;              ;              ;       0,41847
508,13450;              ;              ;       0,41971
509,08942;              ;              ;       0,42070
510,04433;              ;              ;       0,42162
510,99925;              ;              ;       0,42282
511,95416;              ;              ;       0,42375
512,90908;              ;              ;       0,42457
513,86399;              ;              ;       0,42648
514,81891;              ;              ;       0,42677
515,77382;              ;              ;       0,42790
516,72874;              ;              ;       0,42684
517,68365;              ;              ;       0,42739
518,63857;              ;              ;       0,42772
519,59348;              ;              ;       0,42757
520,54840;              ;              ;       0,42810
521,50331;              ;              ;       0,42849
522,45823;              ;              ;       0,42909
523,41314;              ;              ;       0,42981
524,36806;              ;              ;       0,43034
525,32297;              ;              ;       0,43077
526,27789;              ;              ;       0,43105
527,23280;              ;              ;       0,43173
528,18772;              ;              ;       0,43200
529,14263;              ;              ;       0,43277
530,09755;              ;              ;       0,43346
531,05246;              ;              ;       0,43345
532,00738;              ;              ;       0,43155
532,96229;              ;              ;       0,43193
533,91721;              ;              ;       0,43221
534,87212;              ;              ;       0,43294
535,82704;              ;              ;       0,43349
536,78195;              ;              ;       0,43413
537,73687;              ;              ;       0,43473
538,69178;              ;              ;       0,43528
539,64670;              ;              ;       0,43553
540,60161;              ;              ;       0,43616
541,55653;              ;              ;       0,43628
542,51144;              ;              ;       0,43698
543,46636;              ;              ;       0,43670
544,42127;              ;              ;       0,43536
545,37619;              ;              ;       0,43704
546,33110;              ;              ;       0,43756
547,28602;              ;              ;       0,43702
548,24093;              ;              ;       0,43781
549,19585;              ;              ;       0,43804
550,15076;              ;              ;       0,43807
551,10568;              ;              ;       0,43842
552,06059;              ;              ;       0,43878
553,01551;              ;              ;       0,43881
553,97042;              ;              ;       0,43923
554,92534;              ;              ;       0,43932
555,88025;              ;              ;       0,43979
556,83517;              ;              ;       0,44022
557,79008;              ;              ;       0,44074
558,74500;              ;              ;       0,44007
559,69991;              ;              ;       0,43995
560,65483;              ;              ;       0,44016
561,60974;              ;              ;       0,44004
562,56466;              ;              ;       0,44022
563,51957;              ;              ;       0,44033
564,47449;              ;              ;       0,44000
565,42940;              ;              ;       0,44008
566,38432;              ;              ;       0,44071
567,33923;              ;              ;       0,44084
568,29415;              ;              ;       0,44035
569,24906;              ;              ;       0,44013
570,20398;              ;              ;       0,44007
571,15889;              ;              ;       0,43954
572,11381;              ;              ;       0,43956
573,06872;              ;              ;       0,43898
574,02364;              ;              ;       0,43869
574,97855;              ;              ;       0,43804
575,93347;              ;              ;       0,43760
576,88838;              ;              ;       0,43723
577,84330;              ;              ;       0,43645
578,79821;              ;              ;       0,43593
579,75313;              ;              ;       0,43584
580,70804;              ;              ;       0,43561
581,66296;              ;              ;       0,43468
582,61787;              ;              ;       0,43493
583,57279;              ;              ;       0,43469
584,52770;              ;              ;       0,43434
585,48262;              ;              ;       0,43452
586,43753;              ;              ;       0,43420
587,39245;              ;              ;       0,43386
588,34736;              ;              ;       0,43370
589,30228;              ;              ;       0,43434
590,25719;              ;              ;       0,43436
591,21211;              ;              ;       0,43397
592,16702;              ;              ;       0,43423
593,12194;              ;              ;       0,43504
594,07685;              ;              ;       0,43447
595,03177;              ;              ;       0,43450
595,98668;              ;              ;       0,43468
596,94160;              ;              ;       0,43443
597,89651;              ;              ;       0,43457
598,85143;              ;              ;       0,43408
599,80634;              ;              ;       0,43427
600,76126;              ;              ;       0,43351
601,71617;              ;              ;       0,43408
602,67109;              ;              ;       0,43401
603,62600;              ;              ;       0,43382
604,58092;              ;              ;       0,43367
605,53583;              ;              ;       0,43422
606,49075;              ;              ;       0,43409
607,44566;              ;              ;       0,43382
608,40058;              ;              ;       0,43339
609,35549;              ;              ;       0,43372
610,31041;              ;              ;       0,43418
611,26532;              ;              ;       0,43406
612,22024;              ;              ;       0,43428
613,17515;              ;              ;       0,43446
614,13007;              ;              ;       0,43432
615,08498;              ;              ;       0,43348
616,03990;              ;              ;       0,43358
616,99481;              ;              ;       0,43455
617,94973;              ;              ;       0,43468
618,90464;              ;              ;       0,43522
619,85956;              ;              ;       0,43495
620,81447;              ;              ;       0,43457
621,76939;              ;              ;       0,43472
622,72430;              ;              ;       0,43450
623,67922;              ;              ;       0,43450
624,63413;              ;              ;       0,43468
625,58905;              ;              ;       0,43483
626,54396;              ;              ;       0,43453
627,49888;              ;              ;       0,43452
628,45379;              ;              ;       0,43443
629,40871;              ;              ;       0,43350
630,36362;              ;              ;       0,43328
631,31854;              ;              ;       0,43255
632,27345;              ;              ;       0,43166
633,22837;              ;              ;       0,43142
634,18328;              ;              ;       0,42919
635,13820;              ;              ;       0,42714
636,09311;              ;              ;       0,42403
637,04803;              ;              ;       0,41824
638,00294;              ;              ;       0,40836
638,95786;              ;              ;       0,38872
639,91277;              ;              ;       0,35073
640,86769;              ;              ;       0,28043
641,82260;              ;              ;       0,16241
642,77752;              ;              ; 7,590186e-002
643,73243;              ;              ; 4,372131e-002
644,68735;              ;              ; 7,726452e-002
645,64226;              ;              ;       0,29652
646,59718;              ;              ;       0,47249
647,55209;              ;              ;       0,59471
648,50701;              ;              ;       0,66794
649,46192;              ;              ;       0,71001
650,41684;              ;              ;       0,73567
651,37175;              ;              ;       0,75188
652,32667;              ;              ;       0,76243
653,28158;              ;              ;       0,77034
654,23650;              ;              ;       0,77545
655,19141;              ;              ;       0,78049
656,14633;              ;              ;       0,78584
657,10124;              ;              ;       0,78950
658,05616;              ;              ;       0,79269
659,01107;              ;              ;       0,79642
659,96599;              ;              ;       0,79957
660,92090;              ;              ;       0,80253
661,87582;              ;              ;       0,80598
662,83073;              ;              ;       0,80913
663,78565;              ;              ;       0,81245
664,74056;              ;              ;       0,81596
665,69548;              ;              ;       0,81853
666,65039;              ;              ;       0,82164
667,60531;              ;              ;       0,82509
668,56022;              ;              ;       0,82952
669,51514;              ;              ;       0,83322
670,47005;              ;              ;       0,83624
671,42497;              ;              ;       0,83958
672,37988;              ;              ;       0,84297
673,33480;              ;              ;       0,84648
674,28971;              ;              ;       0,84953
675,24463;              ;              ;       0,85249
676,19954;              ;              ;       0,85558
677,15446;              ;              ;       0,85693
678,10937;              ;              ;       0,85358
679,06429;              ;              ;       0,83581
680,01920;              ;              ;       0,80386
680,97412;              ;              ;       0,78388
681,92903;              ;              ;       0,77971
682,88395;              ;              ;       0,80980
683,83886;              ;              ;       0,85190
684,79378;              ;              ;       0,87987
685,74869;              ;              ;       0,89492
686,70361;              ;              ;       0,90460
687,65852;              ;              ;       0,91063
688,61344;              ;              ;       0,91373
689,56835;              ;              ;       0,91650
690,52327;              ;              ;       0,91935
691,47818;              ;              ;       0,92243
692,43310;              ;              ;       0,92603
693,38801;              ;              ;       0,92924
694,34293;              ;              ;       0,93244
695,29784;              ;              ;       0,93375
696,25276;              ;              ;       0,93624
697,20767;              ;              ;       0,93851
698,16259;              ;              ;       0,93989
699,11750;              ;              ;       0,94237
700,07242;              ;              ;       0,94369
701,02733;              ;              ;       0,94656
701,98225;              ;              ;       0,94852
702,93716;              ;              ;       0,95084
703,89208;              ;              ;       0,95349
704,84699;              ;              ;       0,95504
705,80191;              ;              ;       0,95757
706,75682;              ;              ;       0,96020
707,71174;              ;              ;       0,96300
708,66665;              ;              ;       0,96578
709,62157;              ;              ;       0,96900
710,57648;              ;              ;       0,97113
711,53140;              ;              ;       0,97421
712,48631;              ;              ;       0,97673
713,44123;              ;              ;       0,97934
714,39614;              ;              ;       0,98188
715,35106;              ;              ;       0,98420
716,30597;              ;              ;       0,98646
717,26089;              ;              ;       0,98963
718,21580;              ;              ;       0,99257
719,17072;              ;              ;       0,99648
720,12563;              ;              ;       0,99921
721,08055;              ;              ;       1,00274
722,03546;              ;              ;       1,00581
722,99038;              ;              ;       1,00958
723,94529;              ;              ;       1,01243
724,90021;              ;              ;       1,01566
725,85512;              ;              ;       1,01903
726,81004;              ;              ;       1,02185
727,76495;              ;              ;       1,02498
728,71987;              ;              ;       1,02856
729,67478;              ;              ;       1,03229
730,62970;              ;              ;       1,03659
731,58461;              ;              ;       1,03971
732,53953;              ;              ;       1,04352
733,49444;              ;              ;       1,04709
734,44936;              ;              ;       1,05131
735,40427;              ;              ;       1,05537
736,35919;              ;              ;       1,05892
737,31410;              ;              ;       1,06305
738,26902;              ;              ;       1,06721
739,22393;              ;              ;       1,07074
740,17885;              ;              ;       1,07486
741,13376;              ;              ;       1,07806
742,08868;              ;              ;       1,08101
743,04359;              ;              ;       1,08398
743,99851;              ;              ;       1,08737
744,95342;              ;              ;       1,09150
745,90834;              ;              ;       1,09566
746,86325;              ;              ;       1,09980
747,81817;              ;              ;       1,10371
748,77308;              ;              ;       1,10723
749,72800;              ;              ;       1,11123
750,68291;              ;              ;       1,11587
751,63783;              ;              ;       1,12007
752,59274;              ;              ;       1,12357
753,54766;              ;              ;       1,12821
754,50257;              ;              ;       1,13191
755,45749;              ;              ;       1,13587
756,41240;              ;              ;       1,13915
757,36732;              ;              ;       1,14362
758,32223;              ;              ;       1,14767
759,27715;              ;              ;       1,15259
760,23206;              ;              ;       1,15679
761,18698;              ;              ;       1,16187
762,14189;              ;              ;       1,16592
763,09681;              ;              ;       1,17025
764,05172;              ;              ;       1,17424
765,00664;              ;              ;       1,17947
765,96155;              ;              ;       1,18383
766,91647;              ;              ;       1,18797
767,87138;              ;              ;       1,19215
768,82630;              ;              ;       1,19631
769,78121;              ;              ;       1,20096
770,73613;              ;              ;       1,20529
771,69104;              ;              ;       1,20916
772,64596;              ;              ;       1,21329
773,60087;              ;              ;       1,21740
774,55579;              ;              ;       1,22137
775,51070;              ;              ;       1,22578
776,46562;              ;              ;       1,23058
777,42053;              ;              ;       1,23519
778,37545;              ;              ;       1,23948
779,33036;              ;              ;       1,24328
780,28528;              ;              ;       1,24727
781,24019;              ;              ;       1,25215
782,19511;              ;              ;       1,25598
783,15002;              ;              ;       1,25964
784,10494;              ;              ;       1,26160
785,05985;              ;              ;       1,26589
786,01477;              ;              ;       1,27044
786,96968;              ;              ;       1,27553
787,92460;              ;              ;       1,28038
788,87951;              ;              ;       1,28450
789,83443;              ;              ;       1,28987
790,78934;              ;              ;       1,29393
791,74426;              ;              ;       1,29761
792,69917;              ;              ;       1,30250
793,65409;              ;              ;       1,30752
794,60900;              ;              ;       1,31109
795,56392;              ;              ;       1,31559
796,51883;              ;              ;       1,31989
797,47375;              ;              ;       1,32306
798,42866;              ;              ;       1,32715
799,38358;              ;              ;       1,33099
800,33849;              ;              ;       1,33574
801,29341;              ;              ;       1,34086
802,24832;              ;              ;       1,34692
803,20324;              ;              ;       1,35164
804,15815;              ;              ;       1,35591
805,11307;              ;              ;       1,35948
806,06798;              ;              ;       1,36309
807,02290;              ;              ;       1,36671
807,97781;              ;              ;       1,37093
808,93273;              ;              ;       1,37416
809,88764;              ;              ;       1,37839
810,84256;              ;              ;       1,38324
811,79747;              ;              ;       1,38754
812,75239;              ;              ;       1,39155
813,70730;              ;              ;       1,39514
814,66222;              ;              ;       1,39905
815,61713;              ;              ;       1,40315
816,57205;              ;              ;       1,40718
817,52696;              ;              ;       1,41196
818,48188;              ;              ;       1,41494
819,43679;              ;              ;       1,41831
820,39171;              ;              ;       1,42110
821,34662;              ;              ;       1,42427
822,30154;              ;              ;       1,42861
823,25645;              ;              ;       1,43210
824,21137;              ;              ;       1,43502
825,16628;              ;              ;       1,43816
826,12120;              ;              ;       1,44103
827,07611;              ;              ;       1,44341
828,03103;              ;              ;       1,44424
828,98594;              ;              ;       1,44661
829,94086;              ;              ;       1,44804
830,89577;              ;              ;       1,45052
831,85069;              ;              ;       1,45193
832,80560;              ;              ;       1,45346
833,76052;              ;              ;       1,45440
834,71543;              ;              ;       1,45357
835,67035;              ;              ;       1,45523
836,62526;              ;              ;       1,45531
837,58018;              ;              ;       1,45439
838,53509;              ;              ;       1,45527
839,49001;              ;              ;       1,45618
840,44492;              ;              ;       1,45671
841,39984;              ;              ;       1,45827
842,35475;              ;              ;       1,45823
843,30967;              ;              ;       1,46125
844,26458;              ;              ;       1,46354
845,21950;              ;              ;       1,46616
846,17441;              ;              ;       1,46931
847,12933;              ;              ;       1,47096
848,08424;              ;              ;       1,47405
849,03916;              ;              ;       1,47607
849,99407;              ;              ;       1,47766
850,94899;              ;              ;       1,48005
851,90390;              ;              ;       1,48195
852,85882;              ;              ;       1,48326
853,81373;              ;              ;       1,48403
854,76865;              ;              ;       1,48558
855,72356;              ;              ;       1,48569
856,67848;              ;              ;       1,48786
857,63339;              ;              ;       1,48899
858,58831;              ;              ;       1,49026
859,54322;              ;              ;       1,49132
860,49814;              ;              ;       1,49274
861,45305;              ;              ;       1,49488
862,40797;              ;              ;       1,49835
863,36288;              ;              ;       1,49969
864,31780;              ;              ;       1,50170
865,27271;              ;              ;       1,50281
866,22763;              ;              ;       1,50443
867,18254;              ;              ;       1,50546
868,13746;              ;              ;       1,50696
869,09237;              ;              ;       1,50982
870,04729;              ;              ;       1,51337
871,00220;              ;              ;       1,51626
871,95712;              ;              ;       1,51814
872,91203;              ;              ;       1,52102
873,86695;              ;              ;       1,52281
874,82186;              ;              ;       1,52384
875,77678;              ;              ;       1,52654
876,73169;              ;              ;       1,52865
877,68661;              ;              ;       1,53094
878,64152;              ;              ;       1,53373
879,59644;              ;              ;       1,53664
880,55135;              ;              ;       1,53850
881,50627;              ;              ;       1,54024
882,46118;              ;              ;       1,54183
883,41610;              ;              ;       1,54320
884,37101;              ;              ;       1,54546
885,32593;              ;              ;       1,54738
886,28084;              ;              ;       1,54964
887,23576;              ;              ;       1,55063
888,19067;              ;              ;       1,55268
889,14559;              ;              ;       1,55504
890,10050;              ;              ;       1,55762
891,05542;              ;              ;       1,55884
892,01033;              ;              ;       1,56012
892,96525;              ;              ;       1,56189
893,92016;              ;              ;       1,56431
894,87508;              ;              ;       1,56756
895,82999;              ;              ;       1,56881
896,78491;              ;              ;       1,57065
897,73982;              ;              ;       1,57266
898,69474;              ;              ;       1,57448
899,64965;              ;              ;       1,57686
900,60457;              ;              ;       1,57931
901,55948;              ;              ;       1,58074
902,51440;              ;              ;       1,58308
903,46931;              ;              ;       1,58514
904,42423;              ;              ;       1,58641
905,37914;              ;              ;       1,58667
906,33406;              ;              ;       1,58780
907,28897;              ;              ;       1,58946
908,24389;              ;              ;       1,59182
909,19880;              ;              ;       1,59430
910,15372;              ;              ;       1,59664
911,10863;              ;              ;       1,59843
912,06355;              ;              ;       1,60028
913,01846;              ;              ;       1,60265
913,97338;              ;              ;       1,60364
914,92829;              ;              ;       1,60549
915,88321;              ;              ;       1,60662
916,83812;              ;              ;       1,60772
917,79304;              ;              ;       1,60882
918,74795;              ;              ;       1,61013
919,70287;              ;              ;       1,61090
920,65778;              ;              ;       1,61232
921,61270;              ;              ;       1,61130
922,56761;              ;              ;       1,61174
923,52253;              ;              ;       1,61337
924,47744;              ;              ;       1,61530
925,43236;              ;              ;       1,61621
926,38727;              ;              ;       1,61764
927,34219;              ;              ;       1,61874
928,29710;              ;              ;       1,62024
929,25202;              ;              ;       1,62230
930,20693;              ;              ;       1,62405
931,16185;              ;              ;       1,62574
932,11676;              ;              ;       1,62573
933,07168;              ;              ;       1,62778
934,02659;              ;              ;       1,62854
934,98151;              ;              ;       1,63123
935,93642;              ;              ;       1,63286
936,89134;              ;              ;       1,63573
937,84625;              ;              ;       1,63820
938,80117;              ;              ;       1,64027
939,75608;              ;              ;       1,64212
940,71100;              ;              ;       1,64369
941,66591;              ;              ;       1,64496
942,62083;              ;              ;       1,64612
943,57574;              ;              ;       1,64816
944,53066;              ;              ;       1,65100
945,48557;              ;              ;       1,65441
946,44049;              ;              ;       1,65571
947,39540;              ;              ;       1,65727
948,35032;              ;              ;       1,65855
949,30523;              ;              ;       1,66010
950,26015;              ;              ;       1,66168
951,21506;              ;              ;       1,66498
952,16998;              ;              ;       1,66587
953,12489;              ;              ;       1,66778
954,07981;              ;              ;       1,67001
955,03472;              ;              ;       1,67324
955,98964;              ;              ;       1,67625
956,94455;              ;              ;       1,67945
957,89947;              ;              ;       1,68037
958,85438;              ;              ;       1,68242
959,80930;              ;              ;       1,68469
960,76421;              ;              ;       1,68687
961,71913;              ;              ;       1,68972
962,67404;              ;              ;       1,69126
963,62896;              ;              ;       1,69326
964,58387;              ;              ;       1,69631
965,53879;              ;              ;       1,69828
966,49370;              ;              ;       1,69895
967,44862;              ;              ;       1,70128
968,40353;              ;              ;       1,70264
969,35845;              ;              ;       1,70515
970,31336;              ;              ;       1,70778
971,26828;              ;              ;       1,71073
972,22319;              ;              ;       1,71292
973,17811;              ;              ;       1,71498
974,13302;              ;              ;       1,71707
975,08794;              ;              ;       1,71854
976,04285;              ;              ;       1,72185
976,99777;              ;              ;       1,72374
977,95268;              ;              ;       1,72574
978,90760;              ;              ;       1,72745
979,86251;              ;              ;       1,72985
980,81743;              ;              ;       1,73175
981,77234;              ;              ;       1,73394
982,72726;              ;              ;       1,73645
983,68217;              ;              ;       1,73871
984,63709;              ;              ;       1,74162
985,59200;              ;              ;       1,74487
986,54692;              ;              ;       1,74766
987,50183;              ;              ;       1,75143
988,45675;              ;              ;       1,75165
989,41166;              ;              ;       1,75354
990,36658;              ;              ;       1,75627
991,32149;              ;              ;       1,75813
992,27641;              ;              ;       1,76037
993,23132;              ;              ;       1,76238
994,18624;              ;              ;       1,76578
995,14115;              ;              ;       1,76795
996,09607;              ;              ;       1,77121
997,05098;              ;              ;       1,77357
998,00590;              ;              ;       1,77620

